    FID     IID       O(HOM)       E(HOM)        N(NM)            F
  10559   10559       352565    3.516e+05       440463      0.01054
  10828   10828       352709    3.514e+05       440199      0.01462
      1       1         3019         4867         7500      -0.7018
  10765   10765       353241    3.515e+05       440307      0.01964
  10074   10074       352509    3.512e+05       439944      0.01437
  10171   10171       350446     3.51e+05       439658    -0.006597
  10926   10926       351179    3.514e+05       440136    -0.002291
  10142   10142       353233    3.515e+05       440291      0.01976
  10388   10388       353116    3.516e+05       440450      0.01691
  10583   10583       351918    3.512e+05       439842     0.008571
  10141   10141       354411    3.514e+05       440134       0.0343
  10868   10868       352228    3.516e+05       440395     0.007476
  10507   10507       352457    3.516e+05       440387      0.01001
  10420   10420       352086    3.512e+05       439840      0.01036
  10279   10279       352653    3.512e+05       439940       0.0164
  10195   10195       352705    3.511e+05       439723      0.01846
  10302   10302       353751    3.515e+05       440287       0.0256
  10885   10885       352576    3.515e+05       440265      0.01235
  10986   10986       352159    3.513e+05       439917      0.01019
  10523   10523       350994    3.507e+05       439312     0.003335
  10620   10620       352605    3.515e+05       440364      0.01193
  10123   10123       351863     3.51e+05       439591      0.01011
  10497   10497       353530    3.513e+05       440070      0.02488
  10325   10325       353842    3.504e+05       438922      0.03913
  11008   11008       360704    3.517e+05       440527       0.1016
  10233   10233       353059    3.512e+05       439875      0.02125
  10702   10702       352472    3.515e+05       440296      0.01103
  10477   10477       353723    3.516e+05       440474      0.02353
  10781   10781       352565    3.514e+05       440177       0.0131
  10770   10770       351501    3.509e+05       439591     0.006274
  10919   10919       351142    3.496e+05       437800      0.01772
  10077   10077       353427    3.514e+05       440174      0.02288
  10339   10339       352980    3.514e+05       440243      0.01731
  10191   10191       355540    3.515e+05       440323      0.04549
  10207   10207       351669      3.5e+05       438230      0.01941
  10020   10020       352345    3.516e+05       440429     0.008386
  10967   10967       352608    3.516e+05       440486      0.01082
  10469   10469       353043    3.503e+05       438677      0.03132
  10080   10080       352919    3.515e+05       440321       0.0158
  11669   11669       357884    3.509e+05       439473      0.07865
  11796   11796       352028    3.514e+05       440115     0.007447
  11441   11441       350689    3.503e+05       438716     0.004886
  11087   11087       351457    3.507e+05       439086      0.00895
  11388   11388       352008    3.509e+05       439468      0.01266
  11819   11819       352712    3.501e+05       438296      0.02971
  11698   11698       352367    3.513e+05       439989      0.01224
  11141   11141       352175    3.505e+05       438917      0.01907
  11822   11822       352507    3.514e+05       440214      0.01223
  11425   11425       352205    3.515e+05       440316     0.007953
  11128   11128       353045    3.516e+05       440427       0.0163
  11802   11802       352827    3.516e+05       440415      0.01399
  11509   11509       348906    3.479e+05       436156      0.01149
  11529   11529       350236    3.503e+05       438644   -0.0002637
   1885    1885       351418    3.508e+05       439362     0.007259
   3540    3540        73045    7.028e+04       103783      0.08253
   3448    3448       335130    3.342e+05       416031      0.01147
   6617    6617       352748    3.516e+05       440360      0.01349
   6866    6866       352686    3.514e+05       440188      0.01431
   6639    6639       351891    3.513e+05       440107     0.006252
    656     656       360017    3.509e+05       439452       0.1034
   6805    6805       351615    3.513e+05       440038     0.003373
   6545    6545       352296    3.514e+05       440159       0.0104
   6483    6483       353935    3.512e+05       439844      0.03137
   6829    6829       352646    3.515e+05       440303      0.01297
   6731    6731       352488    3.496e+05       437656      0.03326
   6873    6873       344962    3.503e+05       438788     -0.06077
   6851    6851       352057    3.514e+05       440220     0.006894
   6734    6734       352260    3.515e+05       440328     0.008279
   6363    6363       352967    3.515e+05       440294       0.0167
   6889    6889       349553     3.51e+05       439702     -0.01667
   6810    6810       353863    3.515e+05       440335      0.02638
   6613    6613       352117    3.515e+05       440243     0.007503
   6677    6677       353649    3.516e+05       440371      0.02346
   6699    6699       352302    3.509e+05       439542      0.01561
   6560    6560       347721    3.513e+05       440069     -0.04068
   6745    6745       350902    3.504e+05       438824     0.005995
   6812    6812       353318    3.514e+05       440215      0.02105
   6791    6791       351913    3.516e+05       440399     0.003695
   6943    6943       352633    3.514e+05       440135      0.01412
   7358    7358       353374    3.517e+05       440501      0.01932
   6985    6985       349723    3.495e+05       437693     0.002406
   7098    7098       351841    3.493e+05       437304      0.02902
   7199    7199       351977    3.515e+05       440361     0.004814
   7320    7320       352719    3.516e+05       440374      0.01311
   7610    7610       352894    3.512e+05       439959      0.01938
   7082    7082       351769    3.506e+05       439139      0.01318
   7080    7080       353576    3.515e+05       440262      0.02366
   7266    7266       352347    3.515e+05       440235     0.009902
   7198    7198       351270    3.516e+05       440385    -0.003362
   7359    7359       352436    3.511e+05       439822      0.01457
   7092    7092       351948    3.513e+05       439993     0.007715
   6910    6910       352107    3.514e+05       440158     0.008151
   7047    7047       352760    3.515e+05       440341      0.01384
   7312    7312       351960    3.514e+05       440176     0.006189
   7119    7119       353635    3.516e+05       440385      0.02334
   7218    7218       352810    3.516e+05       440376      0.01417
   7114    7114       353168    3.515e+05       440281      0.01898
   6936    6936       349949    3.511e+05       439833     -0.01329
   7379    7379       343948    3.514e+05       440101     -0.08344
   7450    7450       351253    3.511e+05       439754     0.002116
   7382    7382       348993    3.514e+05       440179      -0.0273
   7280    7280       354021    3.516e+05       440414      0.02731
   7485    7485       352751    3.509e+05       439465      0.02125
   6952    6952       352565    3.516e+05       440442       0.0108
   7504    7504       351773    3.515e+05       440340     0.002638
   7292    7292       353434    3.517e+05       440505      0.01999
   7252    7252       352566    3.515e+05       440351       0.0115
   7072    7072       352730    3.514e+05       440175      0.01505
   7153    7153       353057    3.515e+05       440269      0.01774
   7232    7232       351942    3.515e+05       440254     0.005249
   7144    7144       350714     3.51e+05       439635    -0.003209
   7336    7336       352496    3.504e+05       438932      0.02356
   7466    7466       350856    3.515e+05       440315    -0.007416
   7231    7231       353176    3.515e+05       440324      0.01874
   7393    7393       353860    3.512e+05       439902      0.02985
   7258    7258       348784    3.509e+05       439487     -0.02403
   7446    7446       351491    3.512e+05       439968     0.002798
   7783    7783       352653    3.516e+05       440361      0.01239
   8393    8393       352115    3.516e+05       440433     0.005728
   8046    8046       353506    3.515e+05       440359      0.02207
   8041    8041       352714    3.511e+05       439820      0.01804
   8134    8134       351277    3.513e+05       440098   -0.0005994
   8184    8184       352669    3.515e+05       440257       0.0135
   7948    7948       353137    3.509e+05       439570      0.02506
   8060    8060       353112    3.516e+05       440482      0.01657
   8383    8383       353355    3.515e+05       440309      0.02092
   7945    7945       352082    3.511e+05       439774      0.01123
   8217    8217       352944    3.516e+05       440407      0.01538
   8336    8336       352463    3.515e+05       440304      0.01084
   7968    7968       353961    3.517e+05       440517      0.02569
   7787    7787       352842    3.515e+05       440276       0.0154
   7905    7905       351837    3.512e+05       439890     0.007518
   8237    8237       350650    3.503e+05       438815     0.003763
   7700    7700       352785    3.516e+05       440487      0.01284
   7685    7685       353011    3.516e+05       440417      0.01602
   7898    7898       353181    3.511e+05       439734      0.02377
   7929    7929       358834     3.51e+05       439630      0.08864
   7711    7711       350769    3.515e+05       440352    -0.008756
   8266    8266       353052    3.516e+05       440407      0.01652
   8138    8138       349720    3.514e+05       440166     -0.01865
   7841    7841       353203    3.516e+05       440471      0.01767
   8206    8206       354207    3.515e+05       440300      0.03043
   8135    8135       351492    3.515e+05       440319   -0.0002223
   8417    8417       354258    3.514e+05       440164       0.0322
   7639    7639       348261    3.474e+05       435158     0.009284
   8089    8089       352671    3.515e+05       440357      0.01266
   8120    8120       352709    3.515e+05       440332       0.0133
   7923    7923       352686    3.514e+05       440203      0.01452
   7657    7657       354053    3.516e+05       440426      0.02762
   7824    7824       351615    3.515e+05       440292     0.001418
   8100    8100       351736    3.515e+05       440256     0.002953
   8058    8058       355529    3.516e+05       440424      0.04431
   7967    7967       351467    3.515e+05       440267    0.0001167
   8178    8178       351150    3.504e+05       438838     0.008668
   8076    8076        70818    7.031e+04       109812      0.01293
   7992    7992       100615    9.995e+04       151954      0.01277
   8314    8314       352262    3.515e+05       440284     0.008666
   8291    8291       352477    3.517e+05       440497      0.00927
   8155    8155       348315    3.495e+05       437737     -0.01344
   8238    8238       351698    3.516e+05       440381     0.001551
   8246    8246       353509    3.516e+05       440490      0.02093
   7915    7915       352619    3.516e+05       440375      0.01192
   8073    8073       352433    3.514e+05       440103      0.01216
   8554    8554       352498    3.514e+05       440169      0.01231
   8783    8783       353114    3.513e+05       440085      0.02003
   8594    8594       351141    3.516e+05       440375    -0.004707
   8675    8675       350572     3.51e+05       439454    -0.004632
   9248    9248       353822     3.51e+05       439688      0.03138
   9135    9135       352512    3.517e+05       440529     0.009392
   8734    8734       352253    3.516e+05       440480     0.006819
   8598    8598       351698    3.511e+05       439796      0.00655
   8864    8864       352865    3.515e+05       440339      0.01504
   9187    9187       352012     3.51e+05       439675      0.01133
   9076    9076       353328    3.514e+05       440135      0.02199
   9211    9211       352203    3.515e+05       440350     0.007429
   8463    8463       353062    3.516e+05       440484      0.01597
   8729    8729       352639    3.508e+05       439459       0.0206
   9215    9215       353283    3.513e+05       440079      0.02194
   8985    8985       320763    3.158e+05       403218      0.05709
   8936    8936       351120    3.494e+05       437386      0.02008
   8803    8803       352834    3.511e+05       439742      0.01984
   9246    9246       352000    3.516e+05       440412      0.00468
   9024    9024       352667    3.507e+05       439172      0.02272
   9133    9133       351521    3.507e+05       439342     0.009001
   8840    8840       352331    3.508e+05       439463      0.01708
   9158    9158       352061    3.511e+05       439727      0.01133
   8449    8449       352477    3.516e+05       440472     0.009505
   8787    8787       350678    3.488e+05       436463      0.02193
   8988    8988       352026    3.513e+05       440031      0.00797
   9174    9174       351800    3.511e+05       439707     0.008407
   8808    8808       351171    3.511e+05       439744    0.0009731
   8632    8632       351592    3.504e+05       438899      0.01318
   8483    8483       351142    3.496e+05       437800      0.01772
   8423    8423       352577    3.516e+05       440437       0.0109
   8911    8911       352958    3.516e+05       440459      0.01509
   8934    8934            0            0            0          nan
   8635    8635       351675    3.512e+05       439958     0.004921
   9101    9101       352016     3.51e+05       439589       0.0118
   9119    9119       352407    3.513e+05       440026       0.0127
   8851    8851       352385    3.516e+05       440390     0.009166
   8852    8852       350993    3.507e+05       439234     0.003181
   9220    9220       341732    3.512e+05       439883      -0.1065
   8818    8818       348009    3.506e+05       439109     -0.02967
   8731    8731       352434    3.515e+05       440227      0.01103
   9072    9072       352487    3.512e+05       439843      0.01497
   8905    8905       353542    3.516e+05       440447      0.02173
   8788    8788       351448    3.507e+05       439341     0.008209
   9112    9112       351854    3.512e+05       439956     0.006828
   8599    8599       353305    3.515e+05       440327      0.02003
   9188    9188       349317    3.502e+05       438558    -0.009464
   9720    9720       360291    3.512e+05       439898       0.1026
   9635    9635       352913    3.511e+05       439729      0.02066
   9796    9796       353333    3.516e+05       440390      0.01992
   9568    9568       351887    3.517e+05       440546     0.002191
   9450    9450       352194    3.513e+05       440012      0.01046
   9518    9518       352044    3.515e+05       440287     0.006308
   9589    9589       347292    3.485e+05       435265     -0.01358
   9702    9702       353409    3.516e+05       440401      0.02063
   9372    9372       352515    3.509e+05       439487      0.01847
   9360    9360       352816    3.514e+05       440196      0.01581
   9565    9565       356173    3.511e+05       439706      0.05757
   9276    9276       352035    3.515e+05       440349      0.00561
   9869    9869       352305    3.509e+05       439529      0.01532
   9527    9527       352372    3.512e+05       439914      0.01323
   9726    9726       352473    3.515e+05       440276      0.01113
   9375    9375       348094    3.505e+05       439067     -0.02757
   9453    9453       350053    3.504e+05       438907     -0.00428
   9274    9274       352522    3.513e+05       439979      0.01414
   9871    9871       352249    3.512e+05       439866      0.01214
   9307    9307       353117    3.516e+05       440381      0.01737
   9516    9516       352403    3.515e+05       440327     0.009983
   9399    9399            0            0            0          nan
   9735    9735       352200    3.513e+05       440008      0.01034
   9719    9719       352355    3.514e+05       440215      0.01029
   9969    9969       351970    3.512e+05       439892     0.008814
   9421    9421       353674    3.511e+05       439778       0.0288
   9369    9369       321668    3.148e+05       401908      0.07894
   9920    9920       351006    3.498e+05       438171      0.01324
   9457    9457       352123    3.506e+05       439091      0.01757
   9367    9367       351524    3.514e+05       440209     0.001358
   9262    9262       347908    3.477e+05       435233     0.002603
   9616    9616       352855    3.515e+05       440242      0.01579
   9743    9743       352457    3.516e+05       440404     0.009936
   9380    9380       351646    3.507e+05       439249        0.011
   9799    9799       354796    3.516e+05       440422      0.03606
   9324    9324       352383    3.514e+05       440123      0.01152
   9351    9351       352037    3.514e+05       440166      0.00717
   9747    9747       352977    3.515e+05       440307      0.01651
